File created by python code using SuperMAGGetIndices

============================================================
<year>  <month>  <day>  <hour>  <min>  <sec>  <SME (nT)>  <SML (nT)>  <SMU (nT)>
2002  12  21  00  00  00   616.74  -354.47   262.26
2002  12  21  00  01  00   623.75  -354.72   269.03
2002  12  21  00  02  00   617.18  -349.28   267.90
2002  12  21  00  03  00   633.56  -350.01   283.55
2002  12  21  00  04  00   664.55  -357.88   306.68
2002  12  21  00  05  00   670.05  -355.39   314.66
2002  12  21  00  06  00   645.29  -342.74   302.55
2002  12  21  00  07  00   630.43  -345.38   285.05
2002  12  21  00  08  00   621.00  -347.15   273.85
2002  12  21  00  09  00   629.98  -360.75   269.23
2002  12  21  00  10  00   635.51  -368.02   267.49
2002  12  21  00  11  00   645.75  -374.46   271.29
2002  12  21  00  12  00   669.84  -389.80   280.03
2002  12  21  00  13  00   681.61  -389.16   292.46
2002  12  21  00  14  00   700.88  -397.25   303.63
2002  12  21  00  15  00   706.99  -402.45   304.55
2002  12  21  00  16  00   720.31  -412.51   307.79
2002  12  21  00  17  00   737.82  -425.40   312.41
2002  12  21  00  18  00   741.18  -434.03   307.15
2002  12  21  00  19  00   747.01  -447.46   299.55
2002  12  21  00  20  00   744.23  -448.51   295.71
2002  12  21  00  21  00   738.28  -437.68   300.60
2002  12  21  00  22  00   756.89  -440.97   315.92
2002  12  21  00  23  00   730.96  -424.51   306.45
2002  12  21  00  24  00   715.52  -418.17   297.35
2002  12  21  00  25  00   721.89  -420.95   300.94
2002  12  21  00  26  00   726.85  -421.98   304.87
2002  12  21  00  27  00   703.01  -399.96   303.05
2002  12  21  00  28  00   687.92  -399.62   288.30
2002  12  21  00  29  00   680.87  -388.86   292.01
2002  12  21  00  30  00   669.83  -389.36   280.47
2002  12  21  00  31  00   700.74  -439.57   261.17
2002  12  21  00  32  00   748.16  -484.82   263.34
2002  12  21  00  33  00   717.45  -439.25   278.21
2002  12  21  00  34  00   702.49  -413.11   289.38
2002  12  21  00  35  00   706.30  -424.29   282.01
2002  12  21  00  36  00   653.53  -400.79   252.74
2002  12  21  00  37  00   618.97  -360.39   258.58
2002  12  21  00  38  00   603.26  -350.84   252.43
2002  12  21  00  39  00   626.42  -371.30   255.11
2002  12  21  00  40  00   658.93  -384.80   274.14
2002  12  21  00  41  00   678.95  -402.21   276.75
2002  12  21  00  42  00   692.65  -428.12   264.53
2002  12  21  00  43  00   694.42  -451.19   243.23
2002  12  21  00  44  00   683.49  -463.12   220.37
2002  12  21  00  45  00   664.49  -454.88   209.61
2002  12  21  00  46  00   633.35  -431.08   202.27
2002  12  21  00  47  00   612.89  -415.37   197.52
2002  12  21  00  48  00   585.22  -412.49   172.73
2002  12  21  00  49  00   574.86  -414.17   160.68
2002  12  21  00  50  00   571.60  -410.12   161.48
2002  12  21  00  51  00   567.95  -419.54   148.42
2002  12  21  00  52  00   569.08  -425.75   143.33
2002  12  21  00  53  00   556.99  -419.13   137.86
2002  12  21  00  54  00   534.55  -396.32   138.23
2002  12  21  00  55  00   526.93  -389.58   137.35
2002  12  21  00  56  00   536.72  -395.56   141.17
2002  12  21  00  57  00   548.59  -407.82   140.78
2002  12  21  00  58  00   545.74  -406.80   138.94
2002  12  21  00  59  00   549.81  -412.12   137.69
2002  12  21  01  00  00   563.61  -429.47   134.14
2002  12  21  01  01  00   579.84  -435.19   144.65
2002  12  21  01  02  00   565.57  -431.43   134.14
2002  12  21  01  03  00   555.62  -428.78   126.84
2002  12  21  01  04  00   556.75  -431.28   125.48
2002  12  21  01  05  00   551.32  -418.77   132.55
2002  12  21  01  06  00   543.80  -410.68   133.12
2002  12  21  01  07  00   556.39  -409.76   146.63
2002  12  21  01  08  00   554.44  -406.00   148.45
2002  12  21  01  09  00   548.92  -390.98   157.95
2002  12  21  01  10  00   541.82  -386.66   155.16
2002  12  21  01  11  00   529.84  -384.37   145.47
2002  12  21  01  12  00   533.72  -394.39   139.33
2002  12  21  01  13  00   525.77  -393.34   132.42
2002  12  21  01  14  00   549.65  -417.89   131.76
2002  12  21  01  15  00   570.53  -446.44   124.10
2002  12  21  01  16  00   583.21  -464.28   118.93
2002  12  21  01  17  00   567.94  -455.33   112.61
2002  12  21  01  18  00   530.94  -433.00    97.94
2002  12  21  01  19  00   535.18  -442.35    92.84
2002  12  21  01  20  00   562.03  -471.37    90.66
2002  12  21  01  21  00   560.26  -471.87    88.39
2002  12  21  01  22  00   538.78  -451.82    86.96
2002  12  21  01  23  00   536.59  -442.87    93.72
2002  12  21  01  24  00   545.54  -445.91    99.63
2002  12  21  01  25  00   599.35  -496.65   102.70
2002  12  21  01  26  00   639.88  -531.58   108.30
2002  12  21  01  27  00   677.94  -566.29   111.65
2002  12  21  01  28  00   619.90  -499.31   120.59
2002  12  21  01  29  00   610.85  -480.60   130.25
2002  12  21  01  30  00   602.85  -466.41   136.44
2002  12  21  01  31  00   609.99  -468.42   141.57
2002  12  21  01  32  00   714.70  -567.05   147.65
2002  12  21  01  33  00   753.06  -604.23   148.83
2002  12  21  01  34  00   773.74  -628.86   144.88
2002  12  21  01  35  00   738.91  -598.33   140.58
2002  12  21  01  36  00   695.71  -557.21   138.51
2002  12  21  01  37  00   627.41  -495.28   132.13
2002  12  21  01  38  00   579.77  -484.17    95.60
2002  12  21  01  39  00   589.21  -461.16   128.04
2002  12  21  01  40  00   687.84  -475.13   212.71
2002  12  21  01  41  00   755.88  -503.08   252.80
2002  12  21  01  42  00   784.41  -494.31   290.10
2002  12  21  01  43  00   847.76  -529.55   318.20
2002  12  21  01  44  00   827.37  -500.13   327.24
2002  12  21  01  45  00   778.73  -473.61   305.12
2002  12  21  01  46  00   724.15  -467.43   256.72
2002  12  21  01  47  00   703.46  -479.18   224.28
2002  12  21  01  48  00   680.26  -507.61   172.65
2002  12  21  01  49  00   659.98  -509.28   150.70
2002  12  21  01  50  00   676.53  -530.92   145.60
2002  12  21  01  51  00   624.26  -498.77   125.48
2002  12  21  01  52  00   617.66  -476.13   141.53
2002  12  21  01  53  00   601.74  -488.15   113.58
2002  12  21  01  54  00   612.07  -473.96   138.11
2002  12  21  01  55  00   643.54  -475.52   168.01
2002  12  21  01  56  00   643.87  -455.96   187.91
2002  12  21  01  57  00   638.66  -444.86   193.80
2002  12  21  01  58  00   673.95  -477.34   196.61
2002  12  21  01  59  00   675.44  -455.62   219.82
2002  12  21  02  00  00   668.70  -437.45   231.24
2002  12  21  02  01  00   650.41  -411.37   239.04
2002  12  21  02  02  00   622.32  -373.41   248.90
2002  12  21  02  03  00   595.82  -339.42   256.39
2002  12  21  02  04  00   610.10  -354.30   255.80
2002  12  21  02  05  00   583.43  -338.15   245.28
2002  12  21  02  06  00   580.93  -346.44   234.49
2002  12  21  02  07  00   551.74  -342.56   209.18
2002  12  21  02  08  00   555.77  -343.94   211.84
2002  12  21  02  09  00   543.38  -333.65   209.72
2002  12  21  02  10  00   515.85  -318.12   197.73
2002  12  21  02  11  00   513.66  -315.99   197.67
2002  12  21  02  12  00   514.25  -310.48   203.76
2002  12  21  02  13  00   519.76  -298.80   220.96
2002  12  21  02  14  00   508.59  -277.94   230.64
2002  12  21  02  15  00   515.88  -278.87   237.01
2002  12  21  02  16  00   556.42  -322.40   234.02
2002  12  21  02  17  00   597.36  -362.72   234.64
2002  12  21  02  18  00   591.15  -362.55   228.61
2002  12  21  02  19  00   589.46  -353.30   236.16
2002  12  21  02  20  00   612.50  -381.42   231.09
2002  12  21  02  21  00   618.96  -395.95   223.01
2002  12  21  02  22  00   620.09  -403.33   216.76
2002  12  21  02  23  00   609.16  -394.71   214.45
2002  12  21  02  24  00   583.43  -380.22   203.21
2002  12  21  02  25  00   548.56  -366.45   182.11
2002  12  21  02  26  00   560.76  -394.95   165.81
2002  12  21  02  27  00   557.80  -391.16   166.63
2002  12  21  02  28  00   560.45  -398.90   161.54
2002  12  21  02  29  00   555.76  -396.51   159.25
2002  12  21  02  30  00   550.68  -391.31   159.37
2002  12  21  02  31  00   535.94  -371.65   164.29
2002  12  21  02  32  00   586.08  -421.84   164.24
2002  12  21  02  33  00   539.72  -375.56   164.16
2002  12  21  02  34  00   532.64  -367.56   165.09
2002  12  21  02  35  00   519.77  -360.75   159.02
2002  12  21  02  36  00   520.97  -363.02   157.95
2002  12  21  02  37  00   555.46  -407.59   147.88
2002  12  21  02  38  00   530.02  -387.23   142.79
2002  12  21  02  39  00   579.94  -422.23   157.71
2002  12  21  02  40  00   614.02  -441.35   172.67
2002  12  21  02  41  00   660.11  -482.49   177.62
2002  12  21  02  42  00   665.43  -481.87   183.56
2002  12  21  02  43  00   863.54  -679.06   184.48
2002  12  21  02  44  00   906.11  -729.67   176.44
2002  12  21  02  45  00   796.77  -622.39   174.38
2002  12  21  02  46  00   809.05  -631.72   177.33
2002  12  21  02  47  00   826.71  -632.46   194.25
2002  12  21  02  48  00   859.68  -657.50   202.19
2002  12  21  02  49  00   827.34  -615.20   212.14
2002  12  21  02  50  00   820.19  -594.19   226.00
2002  12  21  02  51  00   798.59  -565.97   232.62
2002  12  21  02  52  00   716.89  -506.38   210.52
2002  12  21  02  53  00   678.13  -492.09   186.04
2002  12  21  02  54  00   662.00  -489.19   172.81
2002  12  21  02  55  00   666.08  -490.75   175.33
2002  12  21  02  56  00   669.49  -493.81   175.67
2002  12  21  02  57  00   648.03  -469.77   178.26
2002  12  21  02  58  00   607.28  -430.88   176.40
2002  12  21  02  59  00   593.42  -409.90   183.52
2002  12  21  03  00  00   586.98  -389.25   197.74
2002  12  21  03  01  00   606.51  -405.36   201.15
2002  12  21  03  02  00   615.07  -416.93   198.14
2002  12  21  03  03  00   598.49  -391.20   207.29
2002  12  21  03  04  00   560.71  -360.41   200.30
2002  12  21  03  05  00   581.22  -379.99   201.24
2002  12  21  03  06  00   591.94  -386.27   205.67
2002  12  21  03  07  00   594.89  -393.40   201.49
2002  12  21  03  08  00   619.58  -420.48   199.09
2002  12  21  03  09  00   644.42  -450.00   194.41
2002  12  21  03  10  00   623.14  -419.89   203.24
2002  12  21  03  11  00   606.37  -401.34   205.03
2002  12  21  03  12  00   600.21  -396.52   203.70
2002  12  21  03  13  00   626.35  -424.94   201.41
2002  12  21  03  14  00   597.19  -397.02   200.17
2002  12  21  03  15  00   598.99  -398.36   200.63
2002  12  21  03  16  00   603.25  -410.15   193.10
2002  12  21  03  17  00   593.74  -402.62   191.12
2002  12  21  03  18  00   601.84  -413.31   188.53
2002  12  21  03  19  00   588.08  -411.91   176.17
2002  12  21  03  20  00   541.25  -377.43   163.82
2002  12  21  03  21  00   548.62  -395.52   153.10
2002  12  21  03  22  00   567.37  -417.41   149.96
2002  12  21  03  23  00   575.71  -416.49   159.22
2002  12  21  03  24  00   521.59  -356.94   164.65
2002  12  21  03  25  00   518.76  -353.74   165.01
2002  12  21  03  26  00   569.44  -405.94   163.50
2002  12  21  03  27  00   582.09  -435.43   146.66
2002  12  21  03  28  00   609.47  -476.31   133.16
2002  12  21  03  29  00   620.57  -471.65   148.93
2002  12  21  03  30  00   912.14  -742.18   169.96
2002  12  21  03  31  00   722.00  -519.30   202.70
2002  12  21  03  32  00   668.42  -482.08   186.34
2002  12  21  03  33  00   681.00  -481.79   199.21
2002  12  21  03  34  00   685.49  -495.72   189.77
2002  12  21  03  35  00   676.33  -492.72   183.61
2002  12  21  03  36  00   638.28  -462.77   175.52
2002  12  21  03  37  00   652.88  -466.90   185.98
2002  12  21  03  38  00   666.86  -467.35   199.51
2002  12  21  03  39  00   659.41  -474.76   184.65
2002  12  21  03  40  00   632.65  -467.31   165.34
2002  12  21  03  41  00   726.16  -557.85   168.31
2002  12  21  03  42  00   828.64  -631.26   197.38
2002  12  21  03  43  00   816.01  -617.58   198.43
2002  12  21  03  44  00   813.52  -627.04   186.48
2002  12  21  03  45  00   807.57  -624.07   183.50
2002  12  21  03  46  00   974.14  -786.65   187.49
2002  12  21  03  47  00  1024.33  -853.87   170.47
2002  12  21  03  48  00   818.45  -664.97   153.48
2002  12  21  03  49  00   665.18  -480.74   184.44
2002  12  21  03  50  00   672.54  -502.02   170.52
2002  12  21  03  51  00   837.91  -673.54   164.37
2002  12  21  03  52  00   899.35  -711.42   187.92
2002  12  21  03  53  00  1011.81  -812.68   199.13
2002  12  21  03  54  00  1261.59 -1077.62   183.98
2002  12  21  03  55  00  1248.48 -1019.57   228.91
2002  12  21  03  56  00  1547.83 -1282.72   265.11
2002  12  21  03  57  00  1595.25 -1334.89   260.36
2002  12  21  03  58  00  1544.69 -1297.27   247.42
2002  12  21  03  59  00  1520.25 -1256.75   263.50
2002  12  21  04  00  00  1547.72 -1267.41   280.31
2002  12  21  04  01  00  1375.96 -1040.08   335.88
2002  12  21  04  02  00  1461.13 -1132.02   329.11
2002  12  21  04  03  00  1481.18 -1163.78   317.40
2002  12  21  04  04  00  1332.38  -987.75   344.63
2002  12  21  04  05  00  1261.08  -971.93   289.15
2002  12  21  04  06  00  1260.56  -981.06   279.50
2002  12  21  04  07  00  1327.44 -1040.68   286.76
2002  12  21  04  08  00  1331.86 -1038.96   292.90
2002  12  21  04  09  00  1390.66 -1074.01   316.65
2002  12  21  04  10  00  1572.07 -1246.36   325.72
2002  12  21  04  11  00  1395.25 -1146.87   248.39
2002  12  21  04  12  00  1237.85 -1017.60   220.25
2002  12  21  04  13  00  1322.40 -1086.13   236.26
2002  12  21  04  14  00  1269.15  -999.64   269.51
2002  12  21  04  15  00  1137.85  -888.41   249.44
2002  12  21  04  16  00  1160.88  -911.66   249.22
2002  12  21  04  17  00  1130.80  -899.13   231.67
2002  12  21  04  18  00  1153.20  -922.46   230.74
2002  12  21  04  19  00  1092.82  -814.43   278.39
2002  12  21  04  20  00  1062.31  -746.86   315.44
2002  12  21  04  21  00   975.76  -689.37   286.39
2002  12  21  04  22  00   862.82  -631.53   231.29
2002  12  21  04  23  00   873.11  -649.66   223.45
2002  12  21  04  24  00   910.65  -663.85   246.80
2002  12  21  04  25  00   924.13  -667.30   256.83
2002  12  21  04  26  00   932.36  -676.13   256.23
2002  12  21  04  27  00  1039.48  -772.23   267.25
2002  12  21  04  28  00  1086.02  -809.80   276.22
2002  12  21  04  29  00   936.05  -697.95   238.10
2002  12  21  04  30  00   850.62  -612.00   238.63
2002  12  21  04  31  00   859.56  -604.01   255.55
2002  12  21  04  32  00   876.08  -607.34   268.73
2002  12  21  04  33  00   897.98  -609.19   288.79
2002  12  21  04  34  00   917.58  -627.86   289.72
2002  12  21  04  35  00   940.32  -624.88   315.43
2002  12  21  04  36  00   969.95  -593.03   376.93
2002  12  21  04  37  00  1025.41  -555.27   470.14
2002  12  21  04  38  00  1003.69  -527.25   476.44
2002  12  21  04  39  00   968.89  -533.89   435.00
2002  12  21  04  40  00   886.15  -467.92   418.24
2002  12  21  04  41  00   824.13  -452.03   372.11
2002  12  21  04  42  00   821.98  -454.81   367.18
2002  12  21  04  43  00   866.53  -464.56   401.97
2002  12  21  04  44  00   900.94  -485.47   415.47
2002  12  21  04  45  00   912.78  -482.26   430.52
2002  12  21  04  46  00   933.55  -463.90   469.66
2002  12  21  04  47  00   930.83  -454.91   475.92
2002  12  21  04  48  00   901.22  -463.16   438.07
2002  12  21  04  49  00   848.74  -471.31   377.43
2002  12  21  04  50  00   787.86  -429.64   358.21
2002  12  21  04  51  00   817.72  -408.55   409.17
2002  12  21  04  52  00   846.13  -386.75   459.38
2002  12  21  04  53  00   773.84  -368.88   404.95
2002  12  21  04  54  00   719.12  -334.59   384.53
2002  12  21  04  55  00   694.61  -300.46   394.14
2002  12  21  04  56  00   787.28  -319.96   467.32
2002  12  21  04  57  00   829.16  -342.11   487.05
2002  12  21  04  58  00   803.57  -345.76   457.81
2002  12  21  04  59  00   831.81  -360.05   471.76
2002  12  21  05  00  00   832.14  -350.21   481.93
2002  12  21  05  01  00   866.87  -351.97   514.90
2002  12  21  05  02  00   847.41  -338.03   509.38
2002  12  21  05  03  00   859.93  -347.43   512.50
2002  12  21  05  04  00   872.91  -330.36   542.55
2002  12  21  05  05  00   859.28  -304.57   554.71
2002  12  21  05  06  00   815.70  -276.28   539.42
2002  12  21  05  07  00   724.45  -243.91   480.54
2002  12  21  05  08  00   663.40  -241.87   421.53
2002  12  21  05  09  00   697.23  -277.60   419.63
2002  12  21  05  10  00   718.16  -265.89   452.27
2002  12  21  05  11  00   772.43  -319.34   453.09
2002  12  21  05  12  00   695.30  -280.90   414.40
2002  12  21  05  13  00   648.25  -257.65   390.60
2002  12  21  05  14  00   602.52  -220.76   381.76
2002  12  21  05  15  00   595.14  -225.72   369.42
2002  12  21  05  16  00   543.70  -199.55   344.15
2002  12  21  05  17  00   486.47  -185.85   300.62
2002  12  21  05  18  00   446.55  -180.46   266.09
2002  12  21  05  19  00   427.31  -174.57   252.73
2002  12  21  05  20  00   466.59  -223.41   243.19
2002  12  21  05  21  00   467.89  -202.69   265.20
2002  12  21  05  22  00   483.65  -207.00   276.65
2002  12  21  05  23  00   433.22  -176.48   256.74
2002  12  21  05  24  00   415.73  -161.69   254.04
2002  12  21  05  25  00   409.50  -151.91   257.59
2002  12  21  05  26  00   372.72  -134.77   237.95
2002  12  21  05  27  00   321.56  -135.92   185.63
2002  12  21  05  28  00   345.23  -154.68   190.56
2002  12  21  05  29  00   356.45  -164.69   191.76
2002  12  21  05  30  00   373.52  -159.29   214.23
2002  12  21  05  31  00   361.37  -133.22   228.15
2002  12  21  05  32  00   369.23  -148.45   220.78
2002  12  21  05  33  00   404.02  -181.17   222.85
2002  12  21  05  34  00   374.17  -170.91   203.26
2002  12  21  05  35  00   314.52  -135.08   179.44
2002  12  21  05  36  00   304.84  -134.46   170.37
2002  12  21  05  37  00   317.24  -140.88   176.36
2002  12  21  05  38  00   325.22  -146.45   178.77
2002  12  21  05  39  00   332.33  -144.51   187.82
2002  12  21  05  40  00   336.08  -145.45   190.64
2002  12  21  05  41  00   333.46  -139.95   193.51
2002  12  21  05  42  00   333.73  -126.59   207.15
2002  12  21  05  43  00   335.59  -125.76   209.84
2002  12  21  05  44  00   340.49  -127.25   213.24
2002  12  21  05  45  00   333.05  -129.83   203.21
2002  12  21  05  46  00   307.72  -113.58   194.14
2002  12  21  05  47  00   262.01   -83.66   178.35
2002  12  21  05  48  00   226.25   -75.04   151.20
2002  12  21  05  49  00   217.99   -71.29   146.70
2002  12  21  05  50  00   250.63   -95.95   154.68
2002  12  21  05  51  00   264.42  -101.67   162.74
2002  12  21  05  52  00   231.26   -64.18   167.08
2002  12  21  05  53  00   233.74   -59.01   174.73
2002  12  21  05  54  00   237.30   -61.23   176.07
2002  12  21  05  55  00   222.98   -58.35   164.62
2002  12  21  05  56  00   218.11   -56.14   161.97
2002  12  21  05  57  00   167.90   -44.32   123.58
2002  12  21  05  58  00   163.90   -44.37   119.53
2002  12  21  05  59  00   162.02   -48.56   113.47
2002  12  21  06  00  00   153.45   -56.13    97.32
2002  12  21  06  01  00   147.92   -49.44    98.48
2002  12  21  06  02  00   159.91   -47.20   112.70
2002  12  21  06  03  00   160.23   -36.73   123.50
2002  12  21  06  04  00   164.73   -40.88   123.85
2002  12  21  06  05  00   151.81   -53.52    98.29
2002  12  21  06  06  00   151.89   -53.42    98.47
2002  12  21  06  07  00   151.05   -59.14    91.91
2002  12  21  06  08  00   151.87   -69.40    82.47
2002  12  21  06  09  00   146.10   -57.73    88.37
2002  12  21  06  10  00   151.26   -55.92    95.34
2002  12  21  06  11  00   168.49   -73.55    94.94
2002  12  21  06  12  00   175.92   -97.53    78.39
2002  12  21  06  13  00   180.77   -97.99    82.78
2002  12  21  06  14  00   164.85   -86.35    78.50
2002  12  21  06  15  00   153.26   -73.96    79.30
2002  12  21  06  16  00   143.60   -70.90    72.69
2002  12  21  06  17  00   125.33   -59.79    65.54
2002  12  21  06  18  00   111.09   -51.24    59.85
2002  12  21  06  19  00   101.30   -47.52    53.78
2002  12  21  06  20  00   107.28   -49.97    57.31
2002  12  21  06  21  00   101.34   -51.02    50.32
2002  12  21  06  22  00   121.99   -54.35    67.64
2002  12  21  06  23  00   128.55   -56.15    72.40
2002  12  21  06  24  00   118.04   -55.89    62.15
2002  12  21  06  25  00    95.30   -41.59    53.71
2002  12  21  06  26  00    96.23   -42.64    53.59
2002  12  21  06  27  00   104.88   -47.67    57.21
2002  12  21  06  28  00   115.72   -51.75    63.97
2002  12  21  06  29  00   108.08   -53.05    55.03
2002  12  21  06  30  00   117.62   -61.77    55.85
2002  12  21  06  31  00   119.73   -66.37    53.36
2002  12  21  06  32  00   117.93   -68.66    49.27
2002  12  21  06  33  00    90.12   -49.04    41.08
2002  12  21  06  34  00    90.65   -49.19    41.46
2002  12  21  06  35  00    99.06   -52.15    46.90
2002  12  21  06  36  00   112.52   -54.68    57.83
2002  12  21  06  37  00   138.70   -76.19    62.50
2002  12  21  06  38  00   143.63   -75.26    68.37
2002  12  21  06  39  00   166.67   -88.15    78.52
2002  12  21  06  40  00   203.00  -107.20    95.80
2002  12  21  06  41  00   211.08  -117.71    93.37
2002  12  21  06  42  00   186.48  -119.04    67.44
2002  12  21  06  43  00   173.33  -127.17    46.16
2002  12  21  06  44  00   148.65   -98.32    50.33
2002  12  21  06  45  00   164.72  -103.23    61.49
2002  12  21  06  46  00   174.38  -107.70    66.68
2002  12  21  06  47  00   182.56  -113.71    68.85
2002  12  21  06  48  00   187.32  -109.30    78.02
2002  12  21  06  49  00   195.80   -99.64    96.16
2002  12  21  06  50  00   166.71   -78.38    88.33
2002  12  21  06  51  00   168.16   -95.61    72.55
2002  12  21  06  52  00   195.84  -102.35    93.49
2002  12  21  06  53  00   173.50  -117.63    55.87
2002  12  21  06  54  00   179.67  -118.60    61.07
2002  12  21  06  55  00   242.39  -157.11    85.28
2002  12  21  06  56  00   217.76  -146.30    71.46
2002  12  21  06  57  00   212.61  -146.51    66.11
2002  12  21  06  58  00   148.36   -98.79    49.57
2002  12  21  06  59  00   154.93   -76.93    77.99
2002  12  21  07  00  00   187.03   -96.88    90.15
2002  12  21  07  01  00   180.48   -89.10    91.39
2002  12  21  07  02  00   134.36   -52.55    81.82
2002  12  21  07  03  00    99.07   -47.77    51.30
2002  12  21  07  04  00    80.34   -49.09    31.25
2002  12  21  07  05  00    97.28   -60.80    36.49
2002  12  21  07  06  00    95.09   -55.79    39.31
2002  12  21  07  07  00   106.85   -61.04    45.80
2002  12  21  07  08  00   103.23   -54.70    48.53
2002  12  21  07  09  00   102.35   -57.82    44.53
2002  12  21  07  10  00   114.43   -58.75    55.68
2002  12  21  07  11  00   113.85   -49.91    63.94
2002  12  21  07  12  00   122.57   -56.97    65.59
2002  12  21  07  13  00   121.96   -55.34    66.62
2002  12  21  07  14  00   135.12   -68.26    66.86
2002  12  21  07  15  00   152.21   -81.39    70.83
2002  12  21  07  16  00   120.91   -56.63    64.28
2002  12  21  07  17  00   112.38   -45.05    67.33
2002  12  21  07  18  00   116.44   -49.76    66.68
2002  12  21  07  19  00   119.75   -57.26    62.49
2002  12  21  07  20  00   136.52   -66.59    69.93
2002  12  21  07  21  00   135.10   -65.92    69.17
2002  12  21  07  22  00   142.37   -67.73    74.64
2002  12  21  07  23  00   150.31   -71.37    78.93
2002  12  21  07  24  00   110.54   -64.12    46.42
2002  12  21  07  25  00   123.87   -77.37    46.50
2002  12  21  07  26  00   132.57   -74.11    58.46
2002  12  21  07  27  00   132.58   -68.45    64.13
2002  12  21  07  28  00   118.99   -66.03    52.96
2002  12  21  07  29  00   110.99   -61.62    49.36
2002  12  21  07  30  00   100.41   -54.04    46.36
2002  12  21  07  31  00    96.58   -55.65    40.94
2002  12  21  07  32  00    96.11   -58.62    37.49
2002  12  21  07  33  00   100.96   -68.08    32.88
2002  12  21  07  34  00   105.17   -74.68    30.49
2002  12  21  07  35  00    99.52   -74.22    25.30
2002  12  21  07  36  00   108.05   -66.72    41.33
2002  12  21  07  37  00   124.34   -63.05    61.28
2002  12  21  07  38  00   125.16   -68.06    57.10
2002  12  21  07  39  00   134.11   -74.83    59.28
2002  12  21  07  40  00   118.29   -78.40    39.89
2002  12  21  07  41  00   123.57   -90.66    32.91
2002  12  21  07  42  00   145.07  -110.87    34.20
2002  12  21  07  43  00   129.43   -92.34    37.09
2002  12  21  07  44  00   125.25   -79.27    45.98
2002  12  21  07  45  00   134.25   -79.31    54.94
2002  12  21  07  46  00   126.19   -78.04    48.15
2002  12  21  07  47  00   142.23   -78.41    63.82
2002  12  21  07  48  00   138.47   -69.87    68.60
2002  12  21  07  49  00   123.05   -63.39    59.66
2002  12  21  07  50  00   136.95   -62.23    74.72
2002  12  21  07  51  00   146.53   -70.31    76.22
2002  12  21  07  52  00   154.79   -73.83    80.97
2002  12  21  07  53  00   152.45   -70.23    82.21
2002  12  21  07  54  00   137.00   -64.75    72.25
2002  12  21  07  55  00   129.57   -70.11    59.45
2002  12  21  07  56  00   138.65   -72.19    66.46
2002  12  21  07  57  00   127.03   -68.70    58.33
2002  12  21  07  58  00   112.00   -65.90    46.09
2002  12  21  07  59  00   106.82   -70.84    35.98
2002  12  21  08  00  00   109.87   -74.96    34.91
2002  12  21  08  01  00   104.84   -73.90    30.94
2002  12  21  08  02  00   115.29   -72.14    43.14
2002  12  21  08  03  00   124.69   -79.59    45.10
2002  12  21  08  04  00   127.68   -80.95    46.73
2002  12  21  08  05  00   126.71   -70.21    56.50
2002  12  21  08  06  00   119.66   -69.01    50.65
2002  12  21  08  07  00   117.58   -73.57    44.01
2002  12  21  08  08  00   112.78   -76.79    35.98
2002  12  21  08  09  00   102.46   -75.04    27.42
2002  12  21  08  10  00   102.43   -70.66    31.77
2002  12  21  08  11  00   105.25   -75.10    30.15
2002  12  21  08  12  00   117.99   -74.03    43.96
2002  12  21  08  13  00   112.50   -68.70    43.81
2002  12  21  08  14  00   114.71   -69.62    45.09
2002  12  21  08  15  00   122.39   -71.64    50.75
2002  12  21  08  16  00   117.41   -70.59    46.81
2002  12  21  08  17  00   102.88   -68.69    34.18
2002  12  21  08  18  00   103.35   -69.09    34.26
2002  12  21  08  19  00   111.61   -70.27    41.34
2002  12  21  08  20  00   113.23   -73.79    39.44
2002  12  21  08  21  00   110.06   -76.73    33.32
2002  12  21  08  22  00   114.06   -76.98    37.09
2002  12  21  08  23  00   116.01   -75.96    40.05
2002  12  21  08  24  00   108.52   -70.70    37.82
2002  12  21  08  25  00   110.98   -69.75    41.22
2002  12  21  08  26  00   114.53   -71.12    43.41
2002  12  21  08  27  00   103.22   -72.52    30.70
2002  12  21  08  28  00   105.91   -73.75    32.16
2002  12  21  08  29  00   113.85   -73.96    39.89
2002  12  21  08  30  00   115.01   -74.16    40.85
2002  12  21  08  31  00   108.98   -79.31    29.67
2002  12  21  08  32  00   120.24   -83.10    37.14
2002  12  21  08  33  00   116.86   -85.84    31.02
2002  12  21  08  34  00   119.15   -84.20    34.95
2002  12  21  08  35  00   110.26   -79.58    30.69
2002  12  21  08  36  00   120.15   -74.91    45.23
2002  12  21  08  37  00   126.89   -74.17    52.72
2002  12  21  08  38  00   123.38   -76.91    46.47
2002  12  21  08  39  00   114.46   -83.12    31.35
2002  12  21  08  40  00   117.74   -86.84    30.89
2002  12  21  08  41  00   121.47   -87.22    34.25
2002  12  21  08  42  00   121.47   -86.35    35.12
2002  12  21  08  43  00   121.52   -85.67    35.85
2002  12  21  08  44  00   122.88   -84.47    38.41
2002  12  21  08  45  00   124.47   -83.36    41.11
2002  12  21  08  46  00   120.78   -84.02    36.76
2002  12  21  08  47  00   120.84   -85.02    35.82
2002  12  21  08  48  00   125.01   -85.64    39.38
2002  12  21  08  49  00   116.18   -84.83    31.35
2002  12  21  08  50  00   117.68   -84.17    33.52
2002  12  21  08  51  00   120.82   -85.19    35.63
2002  12  21  08  52  00   129.01   -87.20    41.81
2002  12  21  08  53  00   129.91   -89.22    40.68
2002  12  21  08  54  00   119.89   -90.01    29.88
2002  12  21  08  55  00   121.16   -90.34    30.82
2002  12  21  08  56  00   120.93   -88.81    32.11
2002  12  21  08  57  00   121.30   -85.63    35.67
2002  12  21  08  58  00   131.21   -87.84    43.37
2002  12  21  08  59  00   128.88   -88.23    40.65
2002  12  21  09  00  00   128.25   -89.22    39.03
2002  12  21  09  01  00   128.30   -89.96    38.35
2002  12  21  09  02  00   136.46   -90.66    45.81
2002  12  21  09  03  00   129.93   -90.89    39.04
2002  12  21  09  04  00   137.51   -90.69    46.82
2002  12  21  09  05  00   124.56   -89.54    35.02
2002  12  21  09  06  00   124.43   -88.57    35.86
2002  12  21  09  07  00   123.49   -87.85    35.64
2002  12  21  09  08  00   136.27   -86.78    49.49
2002  12  21  09  09  00   146.04   -90.29    55.75
2002  12  21  09  10  00   142.68   -90.26    52.42
2002  12  21  09  11  00   131.16   -88.23    42.93
2002  12  21  09  12  00   146.99   -89.55    57.43
2002  12  21  09  13  00   158.98   -90.80    68.19
2002  12  21  09  14  00   159.66   -89.35    70.31
2002  12  21  09  15  00   158.78   -88.18    70.60
2002  12  21  09  16  00   153.42   -88.21    65.21
2002  12  21  09  17  00   140.17   -88.35    51.82
2002  12  21  09  18  00   138.52   -88.09    50.42
2002  12  21  09  19  00   124.40   -86.95    37.45
2002  12  21  09  20  00   126.71   -85.64    41.07
2002  12  21  09  21  00   123.50   -86.37    37.12
2002  12  21  09  22  00   130.76   -87.38    43.37
2002  12  21  09  23  00   135.35   -87.35    48.00
2002  12  21  09  24  00   131.00   -85.28    45.72
2002  12  21  09  25  00   132.56   -85.37    47.19
2002  12  21  09  26  00   132.98   -84.14    48.83
2002  12  21  09  27  00   158.14   -85.89    72.24
2002  12  21  09  28  00   164.89   -87.94    76.95
2002  12  21  09  29  00   157.83   -87.70    70.13
2002  12  21  09  30  00   157.92   -88.84    69.08
2002  12  21  09  31  00   130.04   -87.12    42.92
2002  12  21  09  32  00   146.82   -85.73    61.09
2002  12  21  09  33  00   128.95   -85.40    43.55
2002  12  21  09  34  00   132.58   -83.51    49.07
2002  12  21  09  35  00   120.80   -83.66    37.13
2002  12  21  09  36  00   121.55   -83.14    38.40
2002  12  21  09  37  00   112.53   -82.23    30.31
2002  12  21  09  38  00   121.45   -82.54    38.91
2002  12  21  09  39  00   136.02   -82.41    53.61
2002  12  21  09  40  00   127.11   -85.36    41.74
2002  12  21  09  41  00   139.47   -85.23    54.24
2002  12  21  09  42  00   141.63   -83.36    58.27
2002  12  21  09  43  00   131.05   -84.98    46.07
2002  12  21  09  44  00   129.11   -85.73    43.39
2002  12  21  09  45  00   116.30   -83.75    32.55
2002  12  21  09  46  00   136.53   -82.24    54.29
2002  12  21  09  47  00   134.45   -81.46    52.99
2002  12  21  09  48  00   132.01   -81.97    50.04
2002  12  21  09  49  00   125.50   -85.08    40.42
2002  12  21  09  50  00   129.55   -84.33    45.22
2002  12  21  09  51  00   129.43   -83.33    46.10
2002  12  21  09  52  00   123.81   -82.64    41.17
2002  12  21  09  53  00   119.16   -81.43    37.73
2002  12  21  09  54  00   113.21   -80.51    32.70
2002  12  21  09  55  00   116.80   -80.41    36.39
2002  12  21  09  56  00   116.62   -78.35    38.27
2002  12  21  09  57  00   115.80   -80.05    35.76
2002  12  21  09  58  00   113.69   -80.17    33.53
2002  12  21  09  59  00   111.85   -78.52    33.33
2002  12  21  10  00  00   113.55   -79.63    33.93
2002  12  21  10  01  00   109.13   -78.86    30.27
2002  12  21  10  02  00   114.37   -78.41    35.96
2002  12  21  10  03  00   113.64   -76.85    36.79
2002  12  21  10  04  00   116.38   -75.43    40.94
2002  12  21  10  05  00   114.99   -74.89    40.10
2002  12  21  10  06  00   112.46   -76.74    35.72
2002  12  21  10  07  00   112.62   -78.44    34.18
2002  12  21  10  08  00   111.60   -79.77    31.83
2002  12  21  10  09  00   118.77   -82.69    36.08
2002  12  21  10  10  00   125.79   -83.21    42.58
2002  12  21  10  11  00   138.95   -84.30    54.65
2002  12  21  10  12  00   143.78   -81.79    61.98
2002  12  21  10  13  00   129.49   -85.02    44.48
2002  12  21  10  14  00   141.19   -89.68    51.51
2002  12  21  10  15  00   144.30   -91.15    53.15
2002  12  21  10  16  00   151.92   -89.34    62.58
2002  12  21  10  17  00   132.61   -85.16    47.45
2002  12  21  10  18  00   123.20   -83.84    39.36
2002  12  21  10  19  00   127.14   -85.15    42.00
2002  12  21  10  20  00   136.64   -90.24    46.40
2002  12  21  10  21  00   122.79   -91.69    31.10
2002  12  21  10  22  00   124.26   -91.30    32.97
2002  12  21  10  23  00   123.31   -88.26    35.05
2002  12  21  10  24  00   118.66   -84.55    34.11
2002  12  21  10  25  00   116.05   -82.41    33.64
2002  12  21  10  26  00   118.18   -81.98    36.20
2002  12  21  10  27  00   121.12   -85.36    35.76
2002  12  21  10  28  00   123.74   -88.16    35.58
2002  12  21  10  29  00   113.11   -84.54    28.56
2002  12  21  10  30  00   117.57   -83.30    34.26
2002  12  21  10  31  00   118.00   -79.52    38.48
2002  12  21  10  32  00   112.55   -75.63    36.92
2002  12  21  10  33  00   106.90   -73.27    33.63
2002  12  21  10  34  00   112.19   -74.09    38.10
2002  12  21  10  35  00   125.28   -77.67    47.61
2002  12  21  10  36  00   131.39   -78.98    52.40
2002  12  21  10  37  00   125.31   -81.52    43.79
2002  12  21  10  38  00   127.93   -81.92    46.00
2002  12  21  10  39  00   110.76   -81.70    29.06
2002  12  21  10  40  00   116.81   -80.35    36.46
2002  12  21  10  41  00   107.60   -76.53    31.08
2002  12  21  10  42  00   105.58   -74.56    31.02
2002  12  21  10  43  00   106.15   -75.08    31.07
2002  12  21  10  44  00   104.59   -75.42    29.17
2002  12  21  10  45  00   109.54   -76.85    32.69
2002  12  21  10  46  00   110.17   -77.30    32.88
2002  12  21  10  47  00   109.57   -77.63    31.94
2002  12  21  10  48  00   104.84   -79.92    24.92
2002  12  21  10  49  00   105.55   -78.56    26.98
2002  12  21  10  50  00   102.72   -79.45    23.27
2002  12  21  10  51  00    96.44   -77.84    18.60
2002  12  21  10  52  00    98.23   -76.63    21.60
2002  12  21  10  53  00    98.06   -75.44    22.62
2002  12  21  10  54  00   100.74   -73.64    27.10
2002  12  21  10  55  00   116.72   -77.26    39.46
2002  12  21  10  56  00   125.95   -81.45    44.50
2002  12  21  10  57  00   125.04   -84.63    40.41
2002  12  21  10  58  00   123.31   -88.89    34.42
2002  12  21  10  59  00   112.82   -86.12    26.70
2002  12  21  11  00  00   105.79   -84.73    21.06
2002  12  21  11  01  00   104.08   -78.75    25.33
2002  12  21  11  02  00   110.93   -80.48    30.45
2002  12  21  11  03  00   118.75   -84.82    33.93
2002  12  21  11  04  00   130.31   -82.78    47.52
2002  12  21  11  05  00   107.53   -86.27    21.25
2002  12  21  11  06  00   109.40   -83.55    25.85
2002  12  21  11  07  00   100.38   -76.76    23.62
2002  12  21  11  08  00   101.27   -82.21    19.06
2002  12  21  11  09  00   110.09   -80.14    29.95
2002  12  21  11  10  00   114.71   -77.45    37.27
2002  12  21  11  11  00   111.71   -73.58    38.13
2002  12  21  11  12  00   110.70   -73.96    36.74
2002  12  21  11  13  00   107.71   -75.76    31.95
2002  12  21  11  14  00    94.10   -68.26    25.83
2002  12  21  11  15  00    94.31   -66.86    27.45
2002  12  21  11  16  00   104.20   -67.83    36.36
2002  12  21  11  17  00   100.29   -68.85    31.44
2002  12  21  11  18  00   120.48   -88.52    31.96
2002  12  21  11  19  00   138.30   -99.23    39.06
2002  12  21  11  20  00   145.53  -105.72    39.81
2002  12  21  11  21  00   139.13  -103.99    35.14
2002  12  21  11  22  00   123.12   -95.88    27.24
2002  12  21  11  23  00   126.83   -94.32    32.51
2002  12  21  11  24  00   120.33   -91.11    29.22
2002  12  21  11  25  00   109.52   -82.98    26.54
2002  12  21  11  26  00   109.75   -88.67    21.08
2002  12  21  11  27  00   134.04   -96.45    37.59
2002  12  21  11  28  00   123.20   -89.53    33.67
2002  12  21  11  29  00   118.02   -91.18    26.84
2002  12  21  11  30  00   119.74   -85.13    34.61
2002  12  21  11  31  00   105.05   -84.18    20.87
2002  12  21  11  32  00   103.54   -84.71    18.84
2002  12  21  11  33  00   113.76   -86.12    27.63
2002  12  21  11  34  00   128.31  -102.48    25.82
2002  12  21  11  35  00   141.01  -116.67    24.35
2002  12  21  11  36  00   135.40  -115.44    19.96
2002  12  21  11  37  00   131.75  -113.20    18.54
2002  12  21  11  38  00   162.56  -140.22    22.34
2002  12  21  11  39  00   191.87  -167.66    24.20
2002  12  21  11  40  00   185.88  -158.86    27.02
2002  12  21  11  41  00   196.95  -172.17    24.79
2002  12  21  11  42  00   209.45  -187.62    21.83
2002  12  21  11  43  00   199.64  -177.79    21.85
2002  12  21  11  44  00   183.20  -161.55    21.65
2002  12  21  11  45  00   185.89  -164.31    21.58
2002  12  21  11  46  00   190.88  -171.06    19.82
2002  12  21  11  47  00   197.87  -174.83    23.03
2002  12  21  11  48  00   200.29  -175.60    24.69
2002  12  21  11  49  00   184.46  -161.37    23.09
2002  12  21  11  50  00   172.01  -153.13    18.88
2002  12  21  11  51  00   169.55  -148.90    20.66
2002  12  21  11  52  00   164.20  -144.67    19.53
2002  12  21  11  53  00   164.70  -146.44    18.26
2002  12  21  11  54  00   160.72  -138.22    22.50
2002  12  21  11  55  00   149.82  -130.99    18.83
2002  12  21  11  56  00   142.68  -119.80    22.88
2002  12  21  11  57  00   169.16  -136.80    32.35
2002  12  21  11  58  00   172.81  -144.05    28.75
2002  12  21  11  59  00   152.86  -132.59    20.26
2002  12  21  12  00  00   162.71  -125.86    36.85
2002  12  21  12  01  00   163.84  -120.15    43.70
2002  12  21  12  02  00   168.05  -122.65    45.40
2002  12  21  12  03  00   142.98  -112.78    30.20
2002  12  21  12  04  00   153.03  -109.73    43.30
2002  12  21  12  05  00   170.26  -119.59    50.67
2002  12  21  12  06  00   153.03  -124.18    28.85
2002  12  21  12  07  00   132.00  -106.71    25.29
2002  12  21  12  08  00   130.73  -102.86    27.88
2002  12  21  12  09  00   128.40  -103.26    25.15
2002  12  21  12  10  00   126.44  -101.59    24.85
2002  12  21  12  11  00   125.54   -94.96    30.58
2002  12  21  12  12  00   128.22   -92.16    36.06
2002  12  21  12  13  00   139.39   -95.99    43.40
2002  12  21  12  14  00   123.54   -84.40    39.14
2002  12  21  12  15  00   107.29   -75.27    32.02
2002  12  21  12  16  00    98.50   -73.63    24.88
2002  12  21  12  17  00   100.45   -72.63    27.82
2002  12  21  12  18  00    99.77   -70.84    28.93
2002  12  21  12  19  00    92.80   -67.91    24.89
2002  12  21  12  20  00    93.20   -64.19    29.01
2002  12  21  12  21  00    84.85   -56.77    28.08
2002  12  21  12  22  00    85.45   -54.31    31.13
2002  12  21  12  23  00    86.01   -52.06    33.95
2002  12  21  12  24  00    88.47   -48.76    39.71
2002  12  21  12  25  00    87.50   -53.77    33.73
2002  12  21  12  26  00    97.59   -57.88    39.71
2002  12  21  12  27  00    97.21   -62.86    34.34
2002  12  21  12  28  00    94.09   -66.87    27.22
2002  12  21  12  29  00   101.46   -73.37    28.09
2002  12  21  12  30  00   101.83   -73.94    27.89
2002  12  21  12  31  00   100.55   -71.10    29.45
2002  12  21  12  32  00    93.51   -69.92    23.59
2002  12  21  12  33  00    84.88   -65.31    19.57
2002  12  21  12  34  00    77.21   -57.75    19.46
2002  12  21  12  35  00    75.66   -55.95    19.71
2002  12  21  12  36  00    78.50   -58.40    20.10
2002  12  21  12  37  00    80.26   -59.67    20.59
2002  12  21  12  38  00    80.75   -60.41    20.34
2002  12  21  12  39  00    81.59   -57.44    24.15
2002  12  21  12  40  00    79.35   -58.64    20.71
2002  12  21  12  41  00    79.93   -60.64    19.29
2002  12  21  12  42  00    82.49   -58.80    23.69
2002  12  21  12  43  00    87.65   -58.20    29.45
2002  12  21  12  44  00    86.55   -56.67    29.89
2002  12  21  12  45  00    84.94   -55.55    29.39
2002  12  21  12  46  00    79.67   -58.14    21.52
2002  12  21  12  47  00    80.99   -60.38    20.61
2002  12  21  12  48  00    79.41   -58.34    21.07
2002  12  21  12  49  00    79.43   -55.07    24.36
2002  12  21  12  50  00    75.29   -52.17    23.12
2002  12  21  12  51  00    78.47   -52.41    26.06
2002  12  21  12  52  00    75.97   -51.00    24.97
2002  12  21  12  53  00    77.00   -52.90    24.10
2002  12  21  12  54  00    78.29   -53.89    24.40
2002  12  21  12  55  00    80.58   -56.89    23.69
2002  12  21  12  56  00    88.01   -57.67    30.34
2002  12  21  12  57  00    84.56   -54.94    29.61
2002  12  21  12  58  00    82.36   -55.56    26.80
2002  12  21  12  59  00    89.52   -64.41    25.11
2002  12  21  13  00  00    94.43   -65.65    28.78
2002  12  21  13  01  00    94.14   -62.75    31.39
2002  12  21  13  02  00    89.83   -55.92    33.90
2002  12  21  13  03  00    91.30   -56.11    35.19
2002  12  21  13  04  00    99.08   -56.58    42.50
2002  12  21  13  05  00   112.31   -55.75    56.56
2002  12  21  13  06  00   134.19   -56.65    77.54
2002  12  21  13  07  00   133.02   -60.17    72.85
2002  12  21  13  08  00   114.43   -66.77    47.66
2002  12  21  13  09  00   113.75   -72.87    40.88
2002  12  21  13  10  00   101.52   -76.50    25.02
2002  12  21  13  11  00    96.79   -73.93    22.86
2002  12  21  13  12  00    96.11   -72.47    23.63
2002  12  21  13  13  00    93.15   -68.27    24.88
2002  12  21  13  14  00    96.26   -71.03    25.23
2002  12  21  13  15  00    96.74   -73.14    23.60
2002  12  21  13  16  00    93.77   -69.67    24.10
2002  12  21  13  17  00    96.72   -74.38    22.34
2002  12  21  13  18  00   105.70   -82.48    23.22
2002  12  21  13  19  00   105.36   -81.05    24.32
2002  12  21  13  20  00   107.56   -82.06    25.49
2002  12  21  13  21  00   119.03   -87.83    31.20
2002  12  21  13  22  00   115.86   -85.29    30.57
2002  12  21  13  23  00   114.60   -80.54    34.06
2002  12  21  13  24  00   111.42   -76.87    34.55
2002  12  21  13  25  00   118.29   -74.62    43.67
2002  12  21  13  26  00   110.84   -75.44    35.40
2002  12  21  13  27  00    97.94   -82.23    15.71
2002  12  21  13  28  00    98.79   -82.80    15.99
2002  12  21  13  29  00   110.70   -91.68    19.02
2002  12  21  13  30  00   107.82   -88.83    19.00
2002  12  21  13  31  00   104.55   -81.76    22.79
2002  12  21  13  32  00   114.37   -79.33    35.04
2002  12  21  13  33  00   108.24   -81.57    26.66
2002  12  21  13  34  00   103.68   -83.53    20.15
2002  12  21  13  35  00   108.88   -88.35    20.53
2002  12  21  13  36  00   106.45   -88.36    18.09
2002  12  21  13  37  00   110.75   -92.04    18.71
2002  12  21  13  38  00   107.19   -85.93    21.26
2002  12  21  13  39  00   116.91   -82.20    34.71
2002  12  21  13  40  00   112.81   -83.64    29.17
2002  12  21  13  41  00   112.86   -91.85    21.01
2002  12  21  13  42  00   119.21  -102.07    17.14
2002  12  21  13  43  00   129.39  -112.29    17.10
2002  12  21  13  44  00   129.46  -112.52    16.94
2002  12  21  13  45  00   150.86  -125.75    25.11
2002  12  21  13  46  00   161.52  -137.00    24.52
2002  12  21  13  47  00   157.96  -135.24    22.72
2002  12  21  13  48  00   152.19  -131.47    20.72
2002  12  21  13  49  00   153.55  -124.72    28.84
2002  12  21  13  50  00   157.19  -124.97    32.22
2002  12  21  13  51  00   159.69  -128.22    31.46
2002  12  21  13  52  00   162.64  -133.48    29.15
2002  12  21  13  53  00   161.09  -133.73    27.36
2002  12  21  13  54  00   165.80  -135.98    29.81
2002  12  21  13  55  00   173.16  -141.24    31.92
2002  12  21  13  56  00   180.14  -146.50    33.64
2002  12  21  13  57  00   178.51  -144.75    33.76
2002  12  21  13  58  00   173.51  -139.00    34.51
2002  12  21  13  59  00   175.77  -138.27    37.50
2002  12  21  14  00  00   182.13  -142.53    39.61
2002  12  21  14  01  00   175.99  -140.80    35.19
2002  12  21  14  02  00   163.30  -135.07    28.23
2002  12  21  14  03  00   158.75  -129.34    29.40
2002  12  21  14  04  00   160.42  -123.63    36.79
2002  12  21  14  05  00   168.57  -126.91    41.66
2002  12  21  14  06  00   152.93  -118.20    34.73
2002  12  21  14  07  00   138.91  -111.49    27.41
2002  12  21  14  08  00   136.61  -110.79    25.83
2002  12  21  14  09  00   148.77  -120.09    28.67
2002  12  21  14  10  00   136.50  -112.40    24.10
2002  12  21  14  11  00   146.67  -117.70    28.96
2002  12  21  14  12  00   149.81  -123.07    26.74
2002  12  21  14  13  00   133.14  -116.88    16.26
2002  12  21  14  14  00   118.59  -103.91    14.68
2002  12  21  14  15  00   112.48   -99.23    13.25
2002  12  21  14  16  00   115.31  -100.27    15.04
2002  12  21  14  17  00   121.80  -106.59    15.21
2002  12  21  14  18  00   123.05  -107.17    15.88
2002  12  21  14  19  00   124.13  -107.81    16.32
2002  12  21  14  20  00   133.37  -117.88    15.49
2002  12  21  14  21  00   141.45  -125.20    16.25
2002  12  21  14  22  00   137.69  -120.05    17.64
2002  12  21  14  23  00   127.60  -109.04    18.57
2002  12  21  14  24  00   123.41   -98.71    24.71
2002  12  21  14  25  00   121.03   -95.36    25.67
2002  12  21  14  26  00   108.05   -92.96    15.09
2002  12  21  14  27  00   120.72   -94.12    26.60
2002  12  21  14  28  00   123.50   -91.20    32.30
2002  12  21  14  29  00   130.03   -93.55    36.48
2002  12  21  14  30  00   125.47   -87.20    38.27
2002  12  21  14  31  00   132.68   -88.85    43.82
2002  12  21  14  32  00   136.49   -89.25    47.24
2002  12  21  14  33  00   155.92   -95.39    60.52
2002  12  21  14  34  00   176.27  -100.10    76.17
2002  12  21  14  35  00   195.09  -121.69    73.41
2002  12  21  14  36  00   224.21  -156.37    67.84
2002  12  21  14  37  00   254.97  -180.05    74.91
2002  12  21  14  38  00   242.80  -157.99    84.82
2002  12  21  14  39  00   243.54  -158.28    85.26
2002  12  21  14  40  00   229.18  -150.57    78.61
2002  12  21  14  41  00   217.45  -141.95    75.50
2002  12  21  14  42  00   210.39  -133.22    77.17
2002  12  21  14  43  00   200.03  -126.50    73.52
2002  12  21  14  44  00   189.12  -122.79    66.32
2002  12  21  14  45  00   183.51  -119.08    64.43
2002  12  21  14  46  00   177.18  -115.39    61.79
2002  12  21  14  47  00   176.46  -117.68    58.78
2002  12  21  14  48  00   168.59  -111.97    56.62
2002  12  21  14  49  00   173.52  -117.26    56.26
2002  12  21  14  50  00   174.34  -121.54    52.80
2002  12  21  14  51  00   164.07  -113.81    50.26
2002  12  21  14  52  00   179.10  -118.81    60.29
2002  12  21  14  53  00   214.79  -127.43    87.36
2002  12  21  14  54  00   232.08  -136.95    95.13
2002  12  21  14  55  00   202.57  -126.53    76.04
2002  12  21  14  56  00   223.39  -142.13    81.26
2002  12  21  14  57  00   242.00  -144.36    97.64
2002  12  21  14  58  00   243.93  -131.86   112.07
2002  12  21  14  59  00   269.65  -118.10   151.55
2002  12  21  15  00  00   303.20  -143.55   159.65
2002  12  21  15  01  00   251.58  -115.06   136.53
2002  12  21  15  02  00   214.66  -118.50    96.16
2002  12  21  15  03  00   201.31  -124.64    76.67
2002  12  21  15  04  00   215.72  -126.68    89.05
2002  12  21  15  05  00   217.85  -126.01    91.84
2002  12  21  15  06  00   220.62  -129.62    91.00
2002  12  21  15  07  00   223.68  -133.09    90.59
2002  12  21  15  08  00   237.80  -149.56    88.24
2002  12  21  15  09  00   253.00  -159.29    93.71
2002  12  21  15  10  00   265.24  -165.72    99.53
2002  12  21  15  11  00   265.47  -166.40    99.07
2002  12  21  15  12  00   258.43  -168.81    89.62
2002  12  21  15  13  00   257.33  -174.05    83.28
2002  12  21  15  14  00   258.41  -175.18    83.23
2002  12  21  15  15  00   260.04  -181.32    78.73
2002  12  21  15  16  00   268.73  -193.76    74.97
2002  12  21  15  17  00   349.42  -253.69    95.74
2002  12  21  15  18  00   513.76  -383.40   130.36
2002  12  21  15  19  00   719.96  -577.11   142.85
2002  12  21  15  20  00   689.98  -566.72   123.26
2002  12  21  15  21  00   577.74  -495.76    81.98
2002  12  21  15  22  00   455.75  -405.29    50.46
2002  12  21  15  23  00   422.04  -368.43    53.61
2002  12  21  15  24  00   359.30  -300.79    58.52
2002  12  21  15  25  00   349.96  -281.61    68.34
2002  12  21  15  26  00   347.28  -278.91    68.37
2002  12  21  15  27  00   370.37  -300.24    70.13
2002  12  21  15  28  00   418.07  -337.70    80.37
2002  12  21  15  29  00   411.28  -331.87    79.41
2002  12  21  15  30  00   383.26  -304.53    78.73
2002  12  21  15  31  00   365.98  -289.62    76.36
2002  12  21  15  32  00   354.75  -288.40    66.35
2002  12  21  15  33  00   346.32  -276.06    70.26
2002  12  21  15  34  00   361.94  -275.92    86.02
2002  12  21  15  35  00   380.40  -287.11    93.29
2002  12  21  15  36  00   396.45  -309.43    87.02
2002  12  21  15  37  00   393.21  -308.02    85.19
2002  12  21  15  38  00   489.06  -384.49   104.57
2002  12  21  15  39  00   488.54  -378.01   110.53
2002  12  21  15  40  00   479.66  -364.35   115.31
2002  12  21  15  41  00   440.46  -318.79   121.67
2002  12  21  15  42  00   438.14  -319.93   118.21
2002  12  21  15  43  00   441.74  -325.24   116.49
2002  12  21  15  44  00   433.98  -312.91   121.07
2002  12  21  15  45  00   423.99  -302.61   121.38
2002  12  21  15  46  00   419.15  -305.55   113.60
2002  12  21  15  47  00   399.58  -291.24   108.34
2002  12  21  15  48  00   383.62  -278.49   105.13
2002  12  21  15  49  00   386.15  -286.99    99.16
2002  12  21  15  50  00   362.64  -269.65    92.98
2002  12  21  15  51  00   359.89  -274.14    85.75
2002  12  21  15  52  00   376.03  -281.69    94.35
2002  12  21  15  53  00   388.23  -282.10   106.13
2002  12  21  15  54  00   386.46  -276.76   109.70
2002  12  21  15  55  00   378.97  -267.24   111.72
2002  12  21  15  56  00   374.86  -265.48   109.38
2002  12  21  15  57  00   370.92  -264.22   106.70
2002  12  21  15  58  00   372.20  -270.32   101.88
2002  12  21  15  59  00   373.54  -273.32   100.22
2002  12  21  16  00  00   381.90  -274.28   107.62
2002  12  21  16  01  00   397.77  -282.27   115.50
2002  12  21  16  02  00   396.09  -282.14   113.95
2002  12  21  16  03  00   383.57  -280.00   103.57
2002  12  21  16  04  00   371.85  -275.84    96.01
2002  12  21  16  05  00   361.63  -267.66    93.96
2002  12  21  16  06  00   362.23  -267.59    94.64
2002  12  21  16  07  00   365.92  -268.46    97.46
2002  12  21  16  08  00   360.19  -261.31    98.88
2002  12  21  16  09  00   361.10  -260.25   100.86
2002  12  21  16  10  00   350.10  -251.12    98.99
2002  12  21  16  11  00   336.74  -244.00    92.73
2002  12  21  16  12  00   334.13  -257.27    76.86
2002  12  21  16  13  00   334.65  -271.74    62.92
2002  12  21  16  14  00   357.92  -270.58    87.35
2002  12  21  16  15  00   392.11  -289.61   102.51
2002  12  21  16  16  00   394.35  -290.50   103.85
2002  12  21  16  17  00   371.73  -275.42    96.31
2002  12  21  16  18  00   349.04  -257.20    91.84
2002  12  21  16  19  00   341.66  -249.18    92.47
2002  12  21  16  20  00   334.58  -239.91    94.67
2002  12  21  16  21  00   330.73  -234.42    96.31
2002  12  21  16  22  00   321.54  -228.07    93.47
2002  12  21  16  23  00   307.99  -217.51    90.48
2002  12  21  16  24  00   303.10  -214.42    88.68
2002  12  21  16  25  00   292.48  -208.63    83.85
2002  12  21  16  26  00   284.45  -205.45    79.00
2002  12  21  16  27  00   287.24  -202.98    84.25
2002  12  21  16  28  00   289.47  -203.48    85.99
2002  12  21  16  29  00   286.46  -202.44    84.02
2002  12  21  16  30  00   285.55  -201.06    84.49
2002  12  21  16  31  00   294.02  -212.32    81.69
2002  12  21  16  32  00   292.74  -211.15    81.59
2002  12  21  16  33  00   293.04  -206.93    86.11
2002  12  21  16  34  00   290.36  -203.77    86.59
2002  12  21  16  35  00   271.17  -188.92    82.25
2002  12  21  16  36  00   256.47  -178.83    77.64
2002  12  21  16  37  00   245.62  -166.30    79.32
2002  12  21  16  38  00   259.65  -171.80    87.85
2002  12  21  16  39  00   265.03  -175.88    89.15
2002  12  21  16  40  00   250.66  -173.75    76.91
2002  12  21  16  41  00   242.59  -169.59    73.00
2002  12  21  16  42  00   219.58  -160.63    58.95
2002  12  21  16  43  00   233.59  -171.03    62.56
2002  12  21  16  44  00   256.98  -189.06    67.92
2002  12  21  16  45  00   253.45  -187.16    66.28
2002  12  21  16  46  00   250.88  -190.76    60.12
2002  12  21  16  47  00   237.79  -182.28    55.51
2002  12  21  16  48  00   230.56  -173.20    57.36
2002  12  21  16  49  00   239.04  -179.18    59.86
2002  12  21  16  50  00   232.60  -177.57    55.03
2002  12  21  16  51  00   217.05  -161.68    55.37
2002  12  21  16  52  00   208.43  -149.17    59.27
2002  12  21  16  53  00   199.25  -134.82    64.43
2002  12  21  16  54  00   204.21  -138.55    65.65
2002  12  21  16  55  00   200.70  -139.82    60.88
2002  12  21  16  56  00   184.12  -130.73    53.39
2002  12  21  16  57  00   168.93  -117.97    50.96
2002  12  21  16  58  00   184.21  -135.33    48.88
2002  12  21  16  59  00   221.50  -157.94    63.56
2002  12  21  17  00  00   224.69  -157.74    66.95
2002  12  21  17  01  00   213.68  -140.25    73.44
2002  12  21  17  02  00   211.11  -146.19    64.93
2002  12  21  17  03  00   216.29  -163.81    52.48
2002  12  21  17  04  00   215.10  -173.45    41.65
2002  12  21  17  05  00   208.77  -166.74    42.03
2002  12  21  17  06  00   200.01  -156.01    44.01
2002  12  21  17  07  00   191.50  -147.06    44.44
2002  12  21  17  08  00   185.73  -143.85    41.88
2002  12  21  17  09  00   174.88  -130.80    44.08
2002  12  21  17  10  00   171.75  -127.08    44.67
2002  12  21  17  11  00   175.70  -132.16    43.54
2002  12  21  17  12  00   174.55  -133.98    40.56
2002  12  21  17  13  00   182.12  -141.08    41.04
2002  12  21  17  14  00   178.22  -141.11    37.11
2002  12  21  17  15  00   163.29  -125.25    38.04
2002  12  21  17  16  00   163.33  -117.43    45.90
2002  12  21  17  17  00   165.65  -118.93    46.72
2002  12  21  17  18  00   164.27  -115.18    49.10
2002  12  21  17  19  00   157.27  -105.06    52.21
2002  12  21  17  20  00   158.64  -103.04    55.60
2002  12  21  17  21  00   159.20  -100.21    59.00
2002  12  21  17  22  00   149.10   -88.44    60.66
2002  12  21  17  23  00   148.63   -83.54    65.08
2002  12  21  17  24  00   154.90   -88.52    66.38
2002  12  21  17  25  00   168.00   -97.76    70.24
2002  12  21  17  26  00   199.83  -115.08    84.75
2002  12  21  17  27  00   227.93  -139.24    88.69
2002  12  21  17  28  00   232.58  -144.35    88.23
2002  12  21  17  29  00   238.57  -147.10    91.47
2002  12  21  17  30  00   228.47  -142.18    86.29
2002  12  21  17  31  00   246.99  -150.90    96.09
2002  12  21  17  32  00   256.18  -152.76   103.42
2002  12  21  17  33  00   241.61  -146.09    95.52
2002  12  21  17  34  00   220.01  -143.28    76.73
2002  12  21  17  35  00   205.48  -140.95    64.53
2002  12  21  17  36  00   207.92  -141.53    66.38
2002  12  21  17  37  00   205.83  -138.89    66.95
2002  12  21  17  38  00   198.76  -129.65    69.11
2002  12  21  17  39  00   201.91  -124.96    76.95
2002  12  21  17  40  00   248.75  -155.27    93.48
2002  12  21  17  41  00   317.75  -214.26   103.50
2002  12  21  17  42  00   368.51  -270.99    97.51
2002  12  21  17  43  00   397.70  -303.88    93.83
2002  12  21  17  44  00   506.84  -406.27   100.57
2002  12  21  17  45  00   501.30  -400.87   100.43
2002  12  21  17  46  00   552.89  -436.07   116.82
2002  12  21  17  47  00   481.72  -372.26   109.47
2002  12  21  17  48  00   419.88  -331.20    88.68
2002  12  21  17  49  00   377.34  -304.79    72.55
2002  12  21  17  50  00   312.30  -246.81    65.49
2002  12  21  17  51  00   295.11  -232.57    62.54
2002  12  21  17  52  00   289.30  -241.48    47.82
2002  12  21  17  53  00   286.36  -234.43    51.93
2002  12  21  17  54  00   294.41  -240.62    53.79
2002  12  21  17  55  00   306.65  -250.42    56.23
2002  12  21  17  56  00   305.83  -248.07    57.76
2002  12  21  17  57  00   305.29  -249.68    55.61
2002  12  21  17  58  00   295.39  -239.35    56.05
2002  12  21  17  59  00   283.98  -229.24    54.74
2002  12  21  18  00  00   272.92  -217.16    55.76
2002  12  21  18  01  00   301.98  -244.20    57.78
2002  12  21  18  02  00   316.43  -253.71    62.72
2002  12  21  18  03  00   360.68  -288.84    71.84
2002  12  21  18  04  00   378.65  -303.76    74.89
2002  12  21  18  05  00   342.74  -285.37    57.37
2002  12  21  18  06  00   325.44  -273.39    52.05
2002  12  21  18  07  00   345.41  -288.83    56.59
2002  12  21  18  08  00   328.04  -270.20    57.84
2002  12  21  18  09  00   292.02  -236.65    55.37
2002  12  21  18  10  00   267.27  -216.48    50.79
2002  12  21  18  11  00   284.50  -233.94    50.56
2002  12  21  18  12  00   299.63  -239.37    60.26
2002  12  21  18  13  00   306.71  -239.93    66.78
2002  12  21  18  14  00   277.12  -217.25    59.86
2002  12  21  18  15  00   257.10  -200.76    56.34
2002  12  21  18  16  00   262.18  -205.13    57.04
2002  12  21  18  17  00   262.92  -209.26    53.66
2002  12  21  18  18  00   258.13  -206.78    51.35
2002  12  21  18  19  00   262.41  -207.62    54.79
2002  12  21  18  20  00   276.10  -213.37    62.73
2002  12  21  18  21  00   284.87  -221.60    63.26
2002  12  21  18  22  00   295.20  -218.80    76.40
2002  12  21  18  23  00   303.70  -219.27    84.43
2002  12  21  18  24  00   311.84  -219.73    92.11
2002  12  21  18  25  00   325.26  -238.29    86.97
2002  12  21  18  26  00   336.52  -253.11    83.41
2002  12  21  18  27  00   323.68  -247.60    76.08
2002  12  21  18  28  00   311.99  -245.49    66.50
2002  12  21  18  29  00   291.34  -229.14    62.20
2002  12  21  18  30  00   257.97  -201.06    56.90
2002  12  21  18  31  00   241.89  -189.75    52.13
2002  12  21  18  32  00   247.21  -194.64    52.58
2002  12  21  18  33  00   279.10  -219.44    59.66
2002  12  21  18  34  00   287.63  -234.14    53.49
2002  12  21  18  35  00   295.16  -243.03    52.12
2002  12  21  18  36  00   305.69  -242.28    63.41
2002  12  21  18  37  00   303.73  -240.35    63.38
2002  12  21  18  38  00   335.39  -267.07    68.33
2002  12  21  18  39  00   305.54  -247.11    58.43
2002  12  21  18  40  00   282.02  -229.22    52.80
2002  12  21  18  41  00   310.92  -252.63    58.29
2002  12  21  18  42  00   321.03  -260.25    60.78
2002  12  21  18  43  00   344.64  -281.15    63.49
2002  12  21  18  44  00   364.37  -298.04    66.33
2002  12  21  18  45  00   348.13  -291.32    56.80
2002  12  21  18  46  00   322.85  -278.45    44.40
2002  12  21  18  47  00   308.04  -260.33    47.71
2002  12  21  18  48  00   295.04  -244.01    51.04
2002  12  21  18  49  00   326.74  -264.01    62.73
2002  12  21  18  50  00   320.53  -254.03    66.50
2002  12  21  18  51  00   314.78  -245.62    69.16
2002  12  21  18  52  00   320.96  -255.30    65.66
2002  12  21  18  53  00   302.13  -232.38    69.75
2002  12  21  18  54  00   304.73  -234.98    69.75
2002  12  21  18  55  00   297.76  -228.85    68.91
2002  12  21  18  56  00   296.26  -226.11    70.16
2002  12  21  18  57  00   261.79  -197.56    64.23
2002  12  21  18  58  00   233.72  -169.91    63.81
2002  12  21  18  59  00   213.41  -147.44    65.96
2002  12  21  19  00  00   224.95  -155.67    69.29
2002  12  21  19  01  00   231.46  -163.10    68.36
2002  12  21  19  02  00   215.28  -153.61    61.68
2002  12  21  19  03  00   211.60  -151.22    60.38
2002  12  21  19  04  00   218.65  -155.26    63.39
2002  12  21  19  05  00   198.99  -134.18    64.81
2002  12  21  19  06  00   212.79  -132.60    80.19
2002  12  21  19  07  00   208.11  -124.19    83.92
2002  12  21  19  08  00   209.37  -127.72    81.65
2002  12  21  19  09  00   208.29  -134.75    73.54
2002  12  21  19  10  00   210.61  -129.93    80.68
2002  12  21  19  11  00   198.24  -129.67    68.57
2002  12  21  19  12  00   181.42  -121.38    60.05
2002  12  21  19  13  00   191.54  -132.76    58.78
2002  12  21  19  14  00   204.85  -144.61    60.24
2002  12  21  19  15  00   235.73  -163.15    72.59
2002  12  21  19  16  00   274.59  -182.99    91.59
2002  12  21  19  17  00   323.01  -210.04   112.97
2002  12  21  19  18  00   340.00  -226.61   113.39
2002  12  21  19  19  00   314.28  -214.00   100.29
2002  12  21  19  20  00   296.83  -204.60    92.23
2002  12  21  19  21  00   284.95  -199.64    85.30
2002  12  21  19  22  00   257.36  -174.37    82.99
2002  12  21  19  23  00   222.98  -142.54    80.44
2002  12  21  19  24  00   195.11  -114.93    80.18
2002  12  21  19  25  00   175.00   -98.17    76.84
2002  12  21  19  26  00   154.93   -87.02    67.91
2002  12  21  19  27  00   137.17   -75.69    61.48
2002  12  21  19  28  00   149.89   -83.92    65.97
2002  12  21  19  29  00   164.00   -92.04    71.97
2002  12  21  19  30  00   158.46   -86.30    72.17
2002  12  21  19  31  00   136.22   -73.52    62.70
2002  12  21  19  32  00   124.92   -71.44    53.48
2002  12  21  19  33  00   122.99   -68.23    54.76
2002  12  21  19  34  00   128.76   -65.30    63.46
2002  12  21  19  35  00   136.51   -64.07    72.44
2002  12  21  19  36  00   139.15   -67.15    72.00
2002  12  21  19  37  00   139.42   -67.98    71.44
2002  12  21  19  38  00   135.00   -64.21    70.79
2002  12  21  19  39  00   129.08   -64.60    64.48
2002  12  21  19  40  00   144.33   -90.75    53.58
2002  12  21  19  41  00   118.57   -67.85    50.72
2002  12  21  19  42  00   114.37   -65.42    48.95
2002  12  21  19  43  00   115.38   -65.37    50.01
2002  12  21  19  44  00   117.51   -68.52    48.98
2002  12  21  19  45  00   116.27   -67.39    48.87
2002  12  21  19  46  00   116.72   -66.79    49.93
2002  12  21  19  47  00   120.10   -65.95    54.15
2002  12  21  19  48  00   117.77   -65.65    52.12
2002  12  21  19  49  00   114.45   -65.44    49.01
2002  12  21  19  50  00   112.03   -66.16    45.87
2002  12  21  19  51  00   112.73   -65.80    46.93
2002  12  21  19  52  00   109.09   -63.58    45.51
2002  12  21  19  53  00   129.24   -83.51    45.74
2002  12  21  19  54  00   120.61   -75.59    45.02
2002  12  21  19  55  00   117.44   -68.83    48.61
2002  12  21  19  56  00   116.05   -65.83    50.22
2002  12  21  19  57  00   112.18   -65.67    46.51
2002  12  21  19  58  00   121.44   -66.02    55.42
2002  12  21  19  59  00   124.95   -65.35    59.60
2002  12  21  20  00  00   118.88   -65.44    53.44
2002  12  21  20  01  00   122.29   -65.65    56.64
2002  12  21  20  02  00   125.47   -65.98    59.49
2002  12  21  20  03  00   126.15   -66.62    59.53
2002  12  21  20  04  00   123.32   -65.35    57.97
2002  12  21  20  05  00   122.60   -64.56    58.04
2002  12  21  20  06  00   119.89   -64.21    55.67
2002  12  21  20  07  00   119.68   -65.22    54.46
2002  12  21  20  08  00   119.45   -65.06    54.39
2002  12  21  20  09  00   118.44   -64.02    54.42
2002  12  21  20  10  00   121.61   -65.27    56.34
2002  12  21  20  11  00   121.23   -63.67    57.55
2002  12  21  20  12  00   123.74   -64.90    58.85
2002  12  21  20  13  00   122.01   -63.84    58.18
2002  12  21  20  14  00   122.10   -63.47    58.63
2002  12  21  20  15  00   121.57   -63.84    57.72
2002  12  21  20  16  00   121.54   -63.35    58.19
2002  12  21  20  17  00   121.14   -62.09    59.05
2002  12  21  20  18  00   123.99   -63.68    60.32
2002  12  21  20  19  00   126.67   -66.40    60.28
2002  12  21  20  20  00   128.24   -66.32    61.92
2002  12  21  20  21  00   129.25   -66.33    62.92
2002  12  21  20  22  00   130.22   -67.10    63.11
2002  12  21  20  23  00   129.29   -67.65    61.64
2002  12  21  20  24  00   124.11   -65.91    58.20
2002  12  21  20  25  00   132.08   -74.89    57.19
2002  12  21  20  26  00   120.46   -64.02    56.44
2002  12  21  20  27  00   121.03   -64.55    56.48
2002  12  21  20  28  00   121.05   -65.38    55.67
2002  12  21  20  29  00   117.82   -64.91    52.91
2002  12  21  20  30  00   113.78   -62.93    50.84
2002  12  21  20  31  00   111.89   -63.88    48.00
2002  12  21  20  32  00   111.17   -63.82    47.35
2002  12  21  20  33  00   109.33   -62.54    46.79
2002  12  21  20  34  00   108.92   -63.28    45.65
2002  12  21  20  35  00   111.34   -64.99    46.34
2002  12  21  20  36  00   112.03   -65.43    46.60
2002  12  21  20  37  00   109.93   -65.10    44.83
2002  12  21  20  38  00   105.61   -63.13    42.47
2002  12  21  20  39  00   107.18   -64.83    42.35
2002  12  21  20  40  00   107.74   -63.34    44.39
2002  12  21  20  41  00   108.49   -62.66    45.82
2002  12  21  20  42  00   111.79   -64.93    46.86
2002  12  21  20  43  00   112.11   -64.28    47.82
2002  12  21  20  44  00   116.50   -63.75    52.75
2002  12  21  20  45  00   116.43   -63.54    52.89
2002  12  21  20  46  00   114.05   -62.06    51.99
2002  12  21  20  47  00   111.35   -61.85    49.49
2002  12  21  20  48  00   113.51   -61.95    51.56
2002  12  21  20  49  00   113.99   -62.34    51.65
2002  12  21  20  50  00   117.81   -63.76    54.05
2002  12  21  20  51  00   123.74   -63.96    59.79
2002  12  21  20  52  00   121.11   -64.22    56.89
2002  12  21  20  53  00   119.72   -63.64    56.08
2002  12  21  20  54  00   122.39   -64.66    57.73
2002  12  21  20  55  00   128.78   -66.52    62.26
2002  12  21  20  56  00   128.16   -66.20    61.96
2002  12  21  20  57  00   131.53   -67.19    64.34
2002  12  21  20  58  00   134.36   -68.94    65.41
2002  12  21  20  59  00   134.46   -70.03    64.43
2002  12  21  21  00  00   136.16   -70.22    65.94
2002  12  21  21  01  00   159.43   -90.38    69.06
2002  12  21  21  02  00   167.66  -101.55    66.11
2002  12  21  21  03  00   157.64   -94.79    62.86
2002  12  21  21  04  00   156.37   -91.02    65.35
2002  12  21  21  05  00   138.17   -68.86    69.31
2002  12  21  21  06  00   138.03   -69.65    68.37
2002  12  21  21  07  00   131.85   -69.18    62.67
2002  12  21  21  08  00   129.21   -70.02    59.19
2002  12  21  21  09  00   125.66   -69.66    56.00
2002  12  21  21  10  00   128.51   -69.41    59.09
2002  12  21  21  11  00   130.55   -68.94    61.62
2002  12  21  21  12  00   133.46   -68.69    64.77
2002  12  21  21  13  00   139.72   -68.70    71.02
2002  12  21  21  14  00   146.92   -74.93    71.98
2002  12  21  21  15  00   143.90   -73.04    70.86
2002  12  21  21  16  00   147.10   -71.05    76.05
2002  12  21  21  17  00   150.94   -71.36    79.59
2002  12  21  21  18  00   154.67   -68.10    86.57
2002  12  21  21  19  00   169.48   -67.83   101.64
2002  12  21  21  20  00   214.87   -97.74   117.13
2002  12  21  21  21  00   249.79  -135.48   114.31
2002  12  21  21  22  00   251.48  -146.55   104.93
2002  12  21  21  23  00   218.72  -128.78    89.95
2002  12  21  21  24  00   190.87  -112.64    78.23
2002  12  21  21  25  00   183.46  -105.85    77.61
2002  12  21  21  26  00   171.23  -100.45    70.78
2002  12  21  21  27  00   167.77  -101.78    66.00
2002  12  21  21  28  00   155.50  -101.83    53.67
2002  12  21  21  29  00   144.57   -90.22    54.34
2002  12  21  21  30  00   126.69   -72.61    54.08
2002  12  21  21  31  00   122.00   -68.52    53.48
2002  12  21  21  32  00   122.71   -67.88    54.84
2002  12  21  21  33  00   122.47   -67.45    55.02
2002  12  21  21  34  00   121.60   -68.27    53.33
2002  12  21  21  35  00   121.48   -70.28    51.20
2002  12  21  21  36  00   122.04   -69.52    52.52
2002  12  21  21  37  00   119.76   -68.60    51.16
2002  12  21  21  38  00   123.19   -69.42    53.77
2002  12  21  21  39  00   128.24   -69.36    58.88
2002  12  21  21  40  00   134.28   -68.28    66.00
2002  12  21  21  41  00   129.24   -68.13    61.11
2002  12  21  21  42  00   122.27   -68.05    54.23
2002  12  21  21  43  00   114.17   -67.82    46.35
2002  12  21  21  44  00   114.23   -67.76    46.47
2002  12  21  21  45  00   116.66   -68.06    48.60
2002  12  21  21  46  00   116.02   -67.30    48.73
2002  12  21  21  47  00   119.31   -67.46    51.85
2002  12  21  21  48  00   120.42   -67.44    52.98
2002  12  21  21  49  00   121.07   -67.96    53.10
2002  12  21  21  50  00   120.23   -67.00    53.23
2002  12  21  21  51  00   124.12   -66.76    57.36
2002  12  21  21  52  00   130.48   -67.98    62.49
2002  12  21  21  53  00   133.53   -66.90    66.62
2002  12  21  21  54  00   137.66   -65.90    71.75
2002  12  21  21  55  00   142.18   -66.30    75.89
2002  12  21  21  56  00   147.17   -66.15    81.02
2002  12  21  21  57  00   154.66   -66.52    88.15
2002  12  21  21  58  00   163.82   -66.55    97.27
2002  12  21  21  59  00   168.76   -66.38   102.39
2002  12  21  22  00  00   173.36   -65.83   107.53
2002  12  21  22  01  00   180.83   -66.16   114.67
2002  12  21  22  02  00   182.60   -66.80   115.80
2002  12  21  22  03  00   179.29   -67.35   111.94
2002  12  21  22  04  00   174.90   -66.83   108.07
2002  12  21  22  05  00   169.03   -67.83   101.20
2002  12  21  22  06  00   164.66   -67.32    97.34
2002  12  21  22  07  00   163.98   -67.50    96.49
2002  12  21  22  08  00   158.04   -68.41    89.63
2002  12  21  22  09  00   154.15   -68.38    85.76
2002  12  21  22  10  00   159.75   -67.85    91.90
2002  12  21  22  11  00   171.35   -69.30   102.05
2002  12  21  22  12  00   177.93   -69.73   108.19
2002  12  21  22  13  00   176.28   -68.94   107.34
2002  12  21  22  14  00   177.46   -68.97   108.49
2002  12  21  22  15  00   179.06   -67.43   111.63
2002  12  21  22  16  00   181.77   -66.99   114.79
2002  12  21  22  17  00   184.37   -67.44   116.93
2002  12  21  22  18  00   178.76   -67.69   111.07
2002  12  21  22  19  00   172.82   -66.60   106.21
2002  12  21  22  20  00   171.85   -66.49   105.36
2002  12  21  22  21  00   167.77   -64.26   103.50
2002  12  21  22  22  00   168.34   -67.69   100.65
2002  12  21  22  23  00   167.00   -68.21    98.79
2002  12  21  22  24  00   158.07   -68.15    89.92
2002  12  21  22  25  00   153.74   -69.67    84.06
2002  12  21  22  26  00   159.21   -75.17    84.05
2002  12  21  22  27  00   159.49   -76.52    82.97
2002  12  21  22  28  00   155.31   -76.17    79.14
2002  12  21  22  29  00   160.04   -82.43    77.61
2002  12  21  22  30  00   157.18   -82.45    74.74
2002  12  21  22  31  00   170.14   -98.04    72.10
2002  12  21  22  32  00   192.61  -115.40    77.21
2002  12  21  22  33  00   195.69  -119.22    76.47
2002  12  21  22  34  00   200.92  -124.29    76.63
2002  12  21  22  35  00   214.16  -136.06    78.10
2002  12  21  22  36  00   199.13  -124.02    75.10
2002  12  21  22  37  00   190.94  -116.62    74.31
2002  12  21  22  38  00   175.88   -99.65    76.23
2002  12  21  22  39  00   177.11  -101.17    75.94
2002  12  21  22  40  00   194.52  -117.52    77.00
2002  12  21  22  41  00   245.41  -168.72    76.69
2002  12  21  22  42  00   233.95  -152.21    81.73
2002  12  21  22  43  00   254.82  -167.12    87.70
2002  12  21  22  44  00   250.10  -164.94    85.16
2002  12  21  22  45  00   243.66  -159.91    83.76
2002  12  21  22  46  00   247.91  -167.22    80.69
2002  12  21  22  47  00   251.35  -169.66    81.68
2002  12  21  22  48  00   257.90  -176.02    81.88
2002  12  21  22  49  00   289.06  -203.40    85.66
2002  12  21  22  50  00   299.93  -212.73    87.20
2002  12  21  22  51  00   288.19  -199.94    88.25
2002  12  21  22  52  00   275.31  -190.95    84.36
2002  12  21  22  53  00   244.30  -166.94    77.35
2002  12  21  22  54  00   244.15  -167.53    76.63
2002  12  21  22  55  00   248.10  -171.75    76.36
2002  12  21  22  56  00   255.40  -174.64    80.76
2002  12  21  22  57  00   251.26  -167.97    83.28
2002  12  21  22  58  00   251.57  -165.18    86.39
2002  12  21  22  59  00   250.97  -166.57    84.39
2002  12  21  23  00  00   251.50  -165.12    86.38
2002  12  21  23  01  00   244.75  -157.35    87.40
2002  12  21  23  02  00   224.42  -137.30    87.12
2002  12  21  23  03  00   215.97  -122.88    93.10
2002  12  21  23  04  00   233.08  -133.58    99.50
2002  12  21  23  05  00   227.06  -121.16   105.90
2002  12  21  23  06  00   236.06  -126.84   109.21
2002  12  21  23  07  00   258.85  -132.94   125.91
2002  12  21  23  08  00   268.00  -127.31   140.70
2002  12  21  23  09  00   265.19  -124.90   140.29
2002  12  21  23  10  00   264.06  -129.35   134.70
2002  12  21  23  11  00   249.90  -125.30   124.60
2002  12  21  23  12  00   229.28  -120.17   109.11
2002  12  21  23  13  00   205.65  -112.92    92.74
2002  12  21  23  14  00   188.72  -105.16    83.56
2002  12  21  23  15  00   188.21  -104.95    83.26
2002  12  21  23  16  00   210.06  -127.02    83.03
2002  12  21  23  17  00   227.29  -144.56    82.73
2002  12  21  23  18  00   263.11  -187.82    75.29
2002  12  21  23  19  00   338.56  -268.05    70.51
2002  12  21  23  20  00   310.20  -244.47    65.73
2002  12  21  23  21  00   287.24  -223.10    64.14
2002  12  21  23  22  00   247.32  -190.59    56.73
2002  12  21  23  23  00   206.74  -145.82    60.92
2002  12  21  23  24  00   260.13  -192.36    67.77
2002  12  21  23  25  00   373.37  -307.69    65.68
2002  12  21  23  26  00   307.28  -249.48    57.80
2002  12  21  23  27  00   293.79  -244.77    49.02
2002  12  21  23  28  00   296.28  -248.91    47.38
2002  12  21  23  29  00   288.87  -237.78    51.09
2002  12  21  23  30  00   274.26  -220.78    53.48
2002  12  21  23  31  00   267.91  -208.48    59.43
2002  12  21  23  32  00   272.05  -205.82    66.23
2002  12  21  23  33  00   285.60  -211.66    73.94
2002  12  21  23  34  00   298.26  -220.19    78.07
2002  12  21  23  35  00   282.65  -199.11    83.54
2002  12  21  23  36  00   288.83  -203.40    85.43
2002  12  21  23  37  00   302.89  -221.33    81.57
2002  12  21  23  38  00   319.26  -241.59    77.67
2002  12  21  23  39  00   346.54  -269.69    76.85
2002  12  21  23  40  00   351.91  -279.42    72.49
2002  12  21  23  41  00   324.47  -256.77    67.69
2002  12  21  23  42  00   325.19  -260.94    64.25
2002  12  21  23  43  00   369.76  -305.41    64.35
2002  12  21  23  44  00   348.93  -284.06    64.87
2002  12  21  23  45  00   330.62  -265.69    64.94
2002  12  21  23  46  00   341.63  -277.08    64.54
2002  12  21  23  47  00   335.70  -273.76    61.94
2002  12  21  23  48  00   291.42  -232.98    58.44
2002  12  21  23  49  00   297.65  -246.25    51.40
2002  12  21  23  50  00   300.26  -253.71    46.55
2002  12  21  23  51  00   274.80  -228.63    46.18
2002  12  21  23  52  00   282.17  -227.50    54.67
2002  12  21  23  53  00   284.44  -224.79    59.65
2002  12  21  23  54  00   273.73  -214.00    59.73
2002  12  21  23  55  00   268.41  -209.03    59.38
2002  12  21  23  56  00   253.56  -195.46    58.10
2002  12  21  23  57  00   245.94  -189.47    56.46
2002  12  21  23  58  00   235.87  -180.16    55.72
2002  12  21  23  59  00   245.31  -182.65    62.66
